{ Units, Wavelength Units } SI Microns
{ Thickness } 5.66
{ Conductivity } 1
{ IR Transmittance } TIR=0
{ Emissivity, front back } Emis= 0.84 8.887876E-02
{ }
{ Ef_Source: Text File }
{ Eb_Source: Spectral Data }
{ IGDB_Checksum: 1156130730 }
{ Product Name: LowE on Grey }
{ Manufacturer: Viracon }
{ NFRC ID: 6325 }
{ Type: Coated }
{ Material: N/A }
{ Coating Name: VE348 }
{ Coated Side: Back }
{ Substrate Filename: Grey6.lof }
{ Appearance: Gray }
{ Acceptance: # }
{ Uses:  }
{ Availability:   }
{ Structure:  }
0.300    0.0001    0.0609    0.3251
0.305    0.0000    0.0598    0.3202
0.310    0.0000    0.0589    0.3136
0.315    0.0000    0.0580    0.3052
0.320    0.0001    0.0572    0.2937
0.325    0.0001    0.0562    0.2781
0.330    0.0000    0.0549    0.2589
0.335    0.0006    0.0535    0.2352
0.340    0.0039    0.0532    0.2151
0.345    0.0137    0.0545    0.1994
0.350    0.0338    0.0555    0.1805
0.355    0.0629    0.0570    0.1608
0.360    0.0990    0.0597    0.1420
0.365    0.1381    0.0638    0.1247
0.370    0.1738    0.0686    0.1089
0.375    0.1927    0.0716    0.0950
0.380    0.2041    0.0728    0.0810
0.385    0.2386    0.0792    0.0711
0.390    0.2828    0.0890    0.0634
0.395    0.3155    0.0968    0.0571
0.400    0.3347    0.1009    0.0514
0.410    0.3413    0.1008    0.0414
0.420    0.3295    0.0955    0.0332
0.430    0.3229    0.0923    0.0269
0.440    0.3133    0.0886    0.0218
0.450    0.3101    0.0867    0.0181
0.460    0.3068    0.0850    0.0154
0.470    0.2978    0.0824    0.0138
0.480    0.2854    0.0795    0.0132
0.490    0.2737    0.0768    0.0135
0.500    0.2661    0.0747    0.0144
0.510    0.2581    0.0728    0.0159
0.520    0.2534    0.0719    0.0181
0.530    0.2530    0.0716    0.0208
0.540    0.2637    0.0736    0.0240
0.550    0.2826    0.0772    0.0277
0.560    0.2925    0.0790    0.0312
0.570    0.2813    0.0763    0.0341
0.580    0.2565    0.0714    0.0367
0.590    0.2360    0.0676    0.0396
0.600    0.2367    0.0676    0.0431
0.610    0.2416    0.0683    0.0468
0.620    0.2431    0.0685    0.0505
0.630    0.2391    0.0678    0.0541
0.640    0.2325    0.0668    0.0578
0.650    0.2304    0.0666    0.0620
0.660    0.2368    0.0679    0.0662
0.670    0.2516    0.0708    0.0711
0.680    0.2737    0.0757    0.0763
0.690    0.2961    0.0812    0.0817
0.700    0.3096    0.0854    0.0872
0.710    0.3127    0.0874    0.0924
0.720    0.3096    0.0878    0.0977
0.730    0.3035    0.0876    0.1031
0.740    0.2954    0.0869    0.1085
0.750    0.2872    0.0862    0.1141
0.760    0.2787    0.0855    0.1200
0.770    0.2705    0.0846    0.1256
0.780    0.2625    0.0841    0.1317
0.790    0.2545    0.0835    0.1378
0.800    0.2474    0.0832    0.1443
0.810    0.2405    0.0826    0.1510
0.820    0.2340    0.0822    0.1568
0.830    0.2276    0.0817    0.1634
0.840    0.2204    0.0818    0.1715
0.850    0.2148    0.0822    0.1789
0.860    0.2100    0.0821    0.1861
0.870    0.2052    0.0824    0.1933
0.880    0.2006    0.0824    0.1999
0.890    0.1964    0.0824    0.2067
0.900    0.1924    0.0826    0.2140
0.910    0.1886    0.0830    0.2212
0.920    0.1848    0.0834    0.2287
0.930    0.1815    0.0839    0.2361
0.940    0.1781    0.0844    0.2435
0.950    0.1749    0.0850    0.2512
0.960    0.1718    0.0854    0.2589
0.970    0.1690    0.0862    0.2665
0.980    0.1662    0.0868    0.2745
0.990    0.1636    0.0873    0.2816
1.000    0.1611    0.0883    0.2898
1.050    0.1494    0.0920    0.3279
1.100    0.1386    0.0964    0.3661
1.150    0.1289    0.1004    0.4017
1.200    0.1207    0.1055    0.4363
1.250    0.1158    0.1133    0.4685
1.300    0.1135    0.1250    0.4982
1.350    0.1127    0.1406    0.5264
1.400    0.1111    0.1570    0.5519
1.450    0.1105    0.1750    0.5740
1.500    0.1099    0.1967    0.5965
1.550    0.1094    0.2198    0.6145
1.600    0.1077    0.2422    0.6333
1.650    0.1047    0.2582    0.6494
1.700    0.1001    0.2686    0.6650
1.750    0.0950    0.2749    0.6788
1.800    0.0902    0.2811    0.6929
1.850    0.0861    0.2884    0.7057
1.900    0.0824    0.2975    0.7172
1.950    0.0791    0.3070    0.7277
2.000    0.0762    0.3172    0.7372
2.050    0.0737    0.3291    0.7470
2.100    0.0712    0.3405    0.7546
2.150    0.0686    0.3514    0.7644
2.200    0.0645    0.3478    0.7712
2.250    0.0624    0.3584    0.7789
2.300    0.0611    0.3743    0.7841
2.350    0.0589    0.3862    0.7917
2.400    0.0564    0.3905    0.7966
2.450    0.0516    0.3863    0.8030
2.500    0.0378    0.3755    0.8007
5.000    0.0000    0.0300    0.9045
6.000    0.0000    0.0250    0.9133
7.000    0.0000    0.0140    0.9173
8.000    0.0000    0.0020    0.9200
9.000    0.0000    0.2040    0.9257
10.000    0.0000    0.2540    0.9263
11.000    0.0000    0.1600    0.9238
12.000    0.0000    0.0740    0.9245
13.000    0.0000    0.0810    0.9267
14.000    0.0000    0.0680    0.9267
15.000    0.0000    0.0560    0.9234
16.000    0.0000    0.0450    0.9291
17.000    0.0000    0.0330    0.9296
18.000    0.0000    0.0260    0.9304
19.000    0.0000    0.0770    0.9316
20.000    0.0000    0.1770    0.9331
21.000    0.0000    0.2310    0.9332
22.000    0.0000    0.2340    0.9333
23.000    0.0000    0.2130    0.9338
24.000    0.0000    0.1890    0.9327
25.000    0.0000    0.1720    0.9349
26.000    0.0000    0.1580    0.9324
27.000    0.0000    0.1470    0.9327
28.000    0.0000    0.1420    0.9279
29.000    0.0000    0.1370    0.9326
30.000    0.0000    0.1330    0.9297
31.000    0.0000    0.1280    0.9305
32.000    0.0000    0.1250    0.9331
33.000    0.0000    0.1260    0.9354
34.000    0.0000    0.1230    0.9324
35.000    0.0000    0.1250    0.9337
36.000    0.0000    0.1270    0.9373
37.000    0.0000    0.1280    0.9303
38.000    0.0000    0.1260    0.9339
39.000    0.0000    0.1250    0.9314
40.000    0.0000    0.1290    0.9274

